fileFormatVersion: 2
guid: b97673f53c38dc040a89aa59bc61ff8b
timeCreated: 1489448348
licenseType: Pro
NativeFormatImporter:
  userData: "\r\n<svg xmlns=\"http://www.w3.org/2000/svg\" version=\"1.1\" xmlns:xlink=\"http://www.w3.org/1999/xlink\"
    preserveAspectRatio=\"none\" x=\"0px\" y=\"0px\" width=\"6361px\" height=\"953px\"
    viewBox=\"0 0 6361 953\">\r\n<defs>\r\n<g id=\"Symbol_2_0_Layer0_0_FILL\">\r\n<path
    fill=\"#2C6B33\" stroke=\"none\" d=\"\r\nM 6233.95 333.25\r\nQ 6229.9 321.65 6222.75
    312.05 6202.35 284.8 6165.9 284.8 6146.4 284.8 6133.15 293.15 6128.25 296.15 6123.3
    300.9 6117.95 306.35 6115.5 308.8 6114.85 306.3 6113.95 305.3 6111.25 302.4 6104.3
    302.4 6078.45 302.4 6052.9 315.45 6028.75 327.75 6008.7 349.6 5989 371 5977.1
    397.3 5964.9 424.4 5963.5 451.2 5946.7 444.05 5932.9 463.2 5926.4 472.25 5922.2
    484 5922.3 485.95 5921.9 488 5922.3 485.95 5922.2 484 5921.15 486.7 5920.3 489.6
    5921.15 486.7 5922.2 484 5921.9 480 5919.65 476.4 5914.9 468.8 5902.7 468.8 5896.3
    468.8 5888.3 473.6 5887.95 472 5888.2 467.15 5888.45 461.85 5888.1 459.2 5886.9
    449.6 5877.1 449.6 5876.15 449.6 5867.5 454.4 5867.5 453.45 5871.5 438.35 5875.5
    423.25 5875.5 418.4 5875.5 405.4 5873.1 402.6 5871.9 401.65 5871.45 401.1 5870.7
    400.1 5870.7 397.6 5870.7 395.6 5872.3 386 5873.9 376.4 5873.9 374.4 5873.9 368.1
    5868 358.25 5862.25 348.55 5853.1 339.25 5843.4 329.3 5833.4 323.4 5822.2 316.8
    5813.1 316.8 5810.8 316.8 5807.4 318.4 5804 320 5803.5 320 5803.1 309.6 5790.7
    304.7 5780.85 300.8 5765.1 300.8 5723.35 300.8 5699.6 321.95 5676.25 342.7 5675.5
    379.2 5661.55 377.35 5648.05 383 5635.85 388.15 5625.7 398.6 5616.2 408.4 5610.6
    420.5 5605.1 432.5 5605.1 443.2 5605.1 445.5 5606.7 453.7 5608.3 461.9 5608.3
    462.4 5592.1 460.55 5585.5 473.7 5581.1 482.4 5581.1 497.6 5581.1 499.7 5582.7
    509.1 5584.25 518.3 5584.3 519.95 5584.25 518.95 5582.7 517\r\nL 5581.1 515.2\r\nQ
    5577.3 511.95 5570.4 510.2 5564.8 508.8 5559.5 508.8 5547.85 508.8 5545.25 510.45
    5544.5 510.95 5544 512 5543.45 513.1 5542.7 513.6\r\nL 5542.7 512\r\nQ 5543.85
    495.25 5532.6 487.7 5525.85 483.2 5518.7 483.2 5516.4 483.2 5514.6 484 5512.8
    484.8 5512.3 484.8 5515.55 470.3 5509.3 458.15 5502.45 444.8 5488.3 444.8 5482.2
    444.8 5480.8 447.2 5480.35 448.4 5480.1 448.85 5479.7 449.6 5478.7 449.6 5473.9
    447.55 5469.1 448.05 5459.5 449 5459.5 461.6 5459.5 464.2 5459.7 465.3 5459.9
    466.4 5461.1 472\r\nL 5459.5 473.6 5457.9 473.6\r\nQ 5457.9 473.35 5457.75 472.75
    5455.2 471.6 5452.3 470.4 5444.45 467.2 5439.5 467.2 5436.45 467.2 5430.5 470.55
    5423.85 474.3 5417.95 480.1 5402.75 494.8 5401.95 512.4 5403 514.6 5403.5 516.8\r\nL
    5403.5 518.35\r\nQ 5403.4875 517.890625 5402.7 517.3 5401.9 516.7 5401.9 514.4
    5401.9 513.4 5401.95 512.4 5397.6 503.55 5383.75 495.65 5378.3 492.5 5372.05 489.95
    5367.25 488 5366.7 488 5364.7 488 5359.3 491 5358.1 491.65 5357.3 492.15 5357.2
    492.5 5357.1 492.8 5354 494.05 5357.3 492.15 5358.75 486.55 5358.85 477.8 5358.95
    468.1 5357.3 459.25 5353 436.8 5341.1 436.8 5338.8 436.8 5337.8 437.6 5336.8 438.4
    5336.35 438.4 5337.4 438.35 5338.5 431.5 5339.5 425.35 5339.5 421.6 5339.5 416.25
    5337.45 409.75 5334.9 401.65 5329.95 395.2 5316.55 377.6 5290.7 377.6 5286.45
    377.6 5283.25 380.75 5280.8 383.9 5280.3 384\r\nL 5278.7 380.8\r\nQ 5276.4 359.85
    5252.85 346.6 5228.3 332.8 5189.9 332.8 5179.05 332.8 5159.4 344.05 5139.5 355.4
    5120.3 372.8 5099.15 391.9 5086.65 411.5 5072.3 433.95 5072.3 452.8 5072.3 454.8
    5073.9 465.2 5075.5 475.6 5075.5 477.6 5075.5 478.45 5073.75 479.35 5071.4 480.55
    5069.9 482.55 5064.3 490.05 5064.3 513.6 5064.3 538.4 5077.1 562.9 5080.3 569.05
    5085.9 578.45 5089.9 585.6 5089.9 588.8 5088.7 589.15 5087.55 589.7 5085.4 590.8
    5083.8 593.25 5078.7 600.7 5078.7 620 5078.7 622.45 5080.45 632.45 5081.75 640
    5082.9 645.25 5083.15 645.8 5083.5 646.4\r\nL 5083.5 648\r\nQ 5083.2 646.7 5082.9
    645.25 5081.8 643.25 5081.2 642.2 5079.9 639.85 5077.65 638.65 5071.4 635.2 5049.1
    635.2 5047 635.2 5038.8 636.8 5030.6 638.4 5029.1 638.4 5027.95 625.7 5014.9 614.85
    5002.8 604.8 4992.3 604.8 4995.3 599.65 4993.7 592.05 4992.2 584.9 4987.15 577.9
    4982 570.7 4975 566.35 4967.3 561.6 4959.5 561.6 4950.95 561.6 4946.25 564.75
    4944.85 565.65 4943.7 566.9 4942.8 568 4942.7 568 4941.7 567 4940.2 563.9 4938.65
    560.75 4937.1 559.15 4931.65 553.6 4916.3 553.6 4874.5 553.6 4853.55 588.35 4846.2
    600.55 4842.6 615.2 4839.8 626.65 4840.3 633.6 4821.95 635.6 4811.65 656.55 4804.45
    671.15 4803.6 687.1 4804.8 689.95 4805.1 692.8\r\nL 4803.6 692.8 4801.9 692.8
    4803.6 692.8 4803.6 691.2 4803.6 687.1\r\nQ 4801.8 682.65 4797.95 678.1 4790.05
    668.8 4779.5 668.8 4773 668.8 4768.9 672.1 4767.25 673.4 4763.5 678.4\r\nL 4763.5
    676.8\r\nQ 4764.65 669.05 4760.2 656.6 4755.9 644.7 4748.05 632.85 4739.9 620.55
    4731.05 613.05 4721.25 604.8 4713.1 604.8 4686.95 604.8 4672.35 620.85 4666.95
    626.75 4663.85 634.1 4661.35 640 4661.1 644.8 4653.7 638.4 4649.9 638.4 4638.35
    638.4 4629.9 648.4 4621.7 658.1 4624.3 667.2 4618.55 665.7 4610.35 670.3 4602.05
    674.95 4601.9 680\r\nL 4601.9 678.4\r\nQ 4603.4 667.7 4595.8 659.2 4587.15 649.6
    4571.5 649.6 4572.6 647.4 4580.35 637.15 4587.5 626.65 4587.5 620.8 4587.5 610.3
    4579.5 603.2 4579.75 603.05 4581.65 602.15 4583.8 600.85 4585.5 598.5 4590.7 591
    4590.7 574.4 4590.7 564.2 4586.95 551.75 4583.4 539.9 4577.65 529.8 4571.75 519.4
    4565.65 514.5 4559 509.2 4553.9 512 4553.95 508.15 4553.95 505.3 4553.95 499.9
    4552.4 496.25 4547.55 484.8 4526.7 484.8 4495.7 484.8 4478.3 504.15 4471.45 511.7
    4468.55 520.5 4465.9 528.6 4467.5 534.4 4466.55 533.7 4465.1 531.7 4463.45 529.55
    4462.35 528.55 4458.15 524.8 4449.1 524.8 4430.95 524.8 4425 528.25 4420.85 530.65
    4420.7 537.3 4420.5 546.35 4418.8 550.1 4415 558.3 4401.9 564.8 4405.1 553 4402.55
    541.15 4399.75 528 4391.5 528 4389.2 528 4388.6 528.8 4388 529.6 4387.5 529.6
    4389.95 521.45 4388.65 517.35 4387.5 513.6 4383.5 513.6 4380.9 513.6 4379.8 514.4
    4377.1 516.8 4373.1 520\r\nL 4372.55 520.25\r\nQ 4372.85 520.9 4373.1 521.6 4371.5
    520 4371.55 518.4 4369.4 514.65 4366 511.9 4358.2 505.6 4345.1 505.6 4325.6 505.6
    4314.25 515.45 4309.65 519.45 4307.4 524.35 4305.35 528.85 4305.9 532.8 4300.95
    526.6 4296.95 521.65 4289.1 512 4287.5 512 4282.3 512 4271.55 516.6 4259.5 521.75
    4249.65 529.1 4237.7 538 4232.85 547.45 4227.1 558.75 4232.3 569.6 4231.3 568.6
    4230.1 566.6\r\nL 4229.1 564.8\r\nQ 4224.65 557.4 4218.95 554 4212.95 550.4 4204.3
    550.4 4201.75 550.4 4189.75 553.9 4186.7 554.75 4174.7 558.4 4174.7 557.45 4176.2
    553.7 4178.4 548.15 4179.5 544.8 4184.3 530.05 4184.3 513.6 4184.3 490.3 4171
    478.5 4166.25 474.3 4160.35 472.1 4155.8 470.4 4152.3 470.4 4152.3 466.9 4155.8
    462.6 4157.9 460 4163.5 454.1 4174.7 441.25 4174.7 425.6 4174.7 414.15 4168.3
    408.9 4165.1 406.65 4163.9 405.6 4161.9 403.85 4161.9 401.6 4161.9 391 4157.6
    382.1 4152.85 372.3 4144.3 368\r\nL 4133.1 368 4132.4 366.75\r\nQ 4131.3 367.35
    4129.9 368 4131.3 367.35 4132.4 366.75 4135.25 365.2 4135.65 364.3 4136.3 362.85
    4136.3 352.8 4136.3 331.25 4128.95 322.25 4122.95 314.95 4104.3 308.8 4105.9 303.25
    4105.1 294.9 4104.3 286.4 4101.35 278.55 4094.05 259.2 4081.1 259.2\r\nL 4078.2
    260\r\nQ 4077.6 260.8 4077.1 260.8 4077.05 260.5 4077.05 260.2 4075.8 250.95 4069.2
    241.15 4057.7 224 4037.1 224 4018.7 224 4010.6 230.6 4007.65 233 4005.35 236.85
    4003.05 241.2 4001.9 243.2 3998.6 240.7 3994.3 239.4 3991.15 238.4 3989.1 238.4
    3967.55 238.4 3955.95 256.45 3951.65 263.1 3949.35 271.3 3947.5 278 3947.5 283.2
    3945.95 281.65 3942.7 277.05 3939.1 272 3937.15 269.85 3929.95 261.75 3923.5 265.6\r\nL
    3923.5 262.4\r\nQ 3925.5 258.4 3925.7 257.9 3926.7 255.4 3926.7 252.8 3926.7 245.2
    3921.1 240.45 3915.5 237 3915.5 236 3915.5 234.45 3916.6 230.65 3917.6 227.1 3917.5
    224.95 3917 217.85 3904.3 211.2\r\nL 3888.3 211.2 3888.15 209.3 3888.1 209.3\r\nQ
    3884.35 209.6 3883.5 209.6 3884.75 206.55 3882.4 201.5 3879.45 195.2 3872.3 195.2
    3870 195.2 3868.2 196 3866.4 196.8 3865.9 196.8\r\nL 3865.9 195.2\r\nQ 3867.15
    192.75 3868.1 188.7 3869.1 184.55 3869.1 181.6 3869.1 168.35 3862.05 161.15 3857.4
    156.45 3841.9 148.8 3841.45 140.65 3834.1 133.3 3824 123.2 3805.9 123.2 3781.05
    123.2 3766.55 130.85 3750.5 139.3 3744.3 158.4 3743.2 151.8 3737.8 148.35 3733.5
    145.6 3728.3 145.6 3725.45 145.6 3722.6 146.6 3719.95 147.55 3718.7 148.8\r\nL
    3718.7 147.2\r\nQ 3723.05 143 3722.8 136.35 3722.6 130.25 3718.8 124.15 3715.05
    118.05 3709.55 114.65 3703.6 111 3697.9 112\r\nL 3697.9 110.4\r\nQ 3699.6 107.7
    3701.2 103.7 3704.3 95.75 3704.3 88 3704.3 75.05 3699 67.45 3696.3 63.95 3695.2
    62.2 3693.35 59.3 3693.1 56 3690.25 24.7 3666.4 11.6 3645.35 0 3601.9 0 3568.95
    0 3552.35 7.05 3546.5 9.5 3541.65 13.35 3536.85 17.5 3534.7 19.2 3532.6 20.9 3527.5
    20.95 3525.35 21 3516.2 20.3 3497.65 18.85 3485.1 22.4 3458.9 29.95 3432.25 48.05
    3406.25 65.7 3384.95 89.8 3363.2 114.4 3350.95 140.6 3337.9 168.5 3337.9 193.6
    3337.9 195.6 3339.5 207.6 3341.1 219.6 3341.1 221.6 3341.1 224.05 3338.6 227.05
    3335.1 230.75 3333.1 233.1 3325.1 242.45 3325.1 255.2 3325.1 263.05 3330.7 280.5
    3336.3 297.95 3336.3 305.6\r\nL 3334.7 305.6\r\nQ 3333.45 304.1 3332.45 303.1
    3330.65 301.2 3328.2 299.9 3320.95 296 3306.7 296 3300.3 296 3295.7 297.5 3294.05
    298.05 3288.3 300.8 3285.85 294.3 3281.95 289.45 3274.35 280 3261.9 280 3246.7
    280 3228.25 295.5 3222.2 300.55 3215.25 307.75 3208.65 314.85 3206.7 316.8 3202.95
    320.55 3192.1 329.45 3182.45 337.3 3177.55 342.85 3161.9 360.4 3161.9 387.2 3161.9
    414.2 3181.4 446.5 3186.85 455.55 3196 468.15 3203.9 479.1 3205.1 481.6 3198.95
    479.8 3182.6 486.55 3166.2 493.3 3158.7 500.8\r\nL 3158.7 499.2\r\nQ 3154.8 493.2
    3150.9 488.05 3143.2 477.9 3136.3 475.2\r\nL 3136.6 474.05 3136.55 474\r\nQ 3116.2
    469.25 3106.3 474.5 3091.5 482.4 3091.5 494.4 3083.3 493.9 3074.35 504.1 3067.9
    511.45 3065.9 516.8\r\nL 3065.9 515.2\r\nQ 3064.55 509.55 3056.55 504.85 3049.65
    500.8 3045.1 500.8 3045.1 491.45 3041.4 485.35 3036.9 477.9 3027.5 476.8 3030.7
    472.35 3030 467.25 3029.3 462.2 3025 457.9 3015.2 448 2995.5 448 2994.35 448 2991.8
    450.4 2989.25 452.8 2989.1 452.8 2986.95 451.6 2984.7 450.4 2980.2 448 2977.9
    448 2972.8 448 2953.8 454.45 2935.95 460.5 2933.1 462.4 2926.8 466.45 2921.6 477.3
    2920.3 480.05 2918.2 484.85 2916.55 488.6 2915.5 489.6 2912.5 492.6 2903.95 498.55
    2892.85 506.2 2889.05 509.2 2870.7 523.55 2870.7 536 2868.8 533.65 2867.85 532.85
    2865.85 531.2 2863.5 531.2 2853.05 531.2 2835 537.55 2819.7 542.95 2813.1 547.2
    2812.6 541.55 2803.5 530.5 2797.75 523.55 2790.7 516.8 2788.4 514.65 2784.9 508.85
    2780.85 502.15 2778.5 499.35 2769.1 488 2752.3 488 2748.6 488 2746.9 489.05 2746.8
    489.1 2742.7 492.8 2740.75 488.95 2731.35 481.5 2719.25 472 2709.9 472\r\nL 2702.6
    474.05\r\nQ 2700.2 476.3 2699.5 476.8 2700 475.15 2700.3 473.5 2700.5 472.2 2700.6
    470.95 2701.3 460.5 2692.55 451.95 2682 441.6 2666.7 441.6 2659.9 441.6 2650.05
    445.25 2639.5 449.2 2630.65 455.55 2607.9 471.7 2611.5 491.2 2610.05 495.35 2605.3
    498.9 2602.45 501.05 2595.6 504.75 2588.7 508.4 2585.8 510.6 2581.05 514.2 2579.5
    518.4 2578.2 515.8 2570.7 510.3 2562.1 504 2557.1 504 2555.9 504 2554.85 504.25
    2554.55 504.3 2554.3 504.35\r\nL 2554.3 504.3\r\nQ 2554.25 503.55 2554.1 503.45
    2553.9 503.35 2553.9 503.2 2554.15 502.75 2554.4 502.3 2557.1 497.9 2558.25 495.4
    2560.3 490.85 2560.3 486.4 2560.3 477.35 2553.9 470.05 2550.35 466 2549.5 464.65
    2547.5 461.4 2547.5 457.6 2547.35 436.45 2534.7 423.75 2523.8 412.8 2509.9 412.8
    2508.4 412.8 2506.2 413.6 2504.5 414.2 2501.5 414.35\r\nL 2501.45 414.35\r\nQ
    2501.65 422.65 2494.2 430.1 2501.65 422.65 2501.45 414.35 2500.55 414.4 2499.5
    414.4 2500.55 414.4 2501.45 414.35 2501.45 414.25 2501.45 414.15 2501.45 413.95
    2501.45 413.85 2500.8 401.3 2483 386.85 2473.4 379.05 2460.25 371.9 2449.6 366.1
    2448.2 366.1 2441.2 366.1 2437.45 368.6 2434.2 370.75 2434.2 374.1 2433.2 361.9
    2426.7 359.15 2424.15 358.1 2419.85 358 2414.6 358.1 2411.7 358.1 2410.4 358.1
    2405.15 360 2398.1 362.55 2392.15 366.15 2373.7 377.4 2373.7 394.1 2373.7 401.1
    2374.2 402.35 2374.3 402.55 2375.15 403.5\r\nL 2377.7 406.1 2375.15 403.5\r\nQ
    2373.25 401.55 2372.45 400.6 2370.35 398.1 2363.7 398.1 2351.4 398.1 2347.35 404.35
    2344.6 408.65 2345.2 418.1 2345.9 429.3 2345.3 431.85 2343.75 438.1 2335.7 438.1
    2330.7 438.1 2326.7 434.1 2322.7 430.1 2317.7 430.1 2311.2 430.1 2307.45 432.6
    2306.7 433.1 2301.7 438.1 2294.45 420 2289.35 411.1 2280.3 395.5 2265.7 390.1
    2272.95 380.55 2277.85 365.55 2281.7 353.65 2281.7 348.1 2281.7 336.7 2278.75
    333.25 2277.6 331.85 2273.9 329 2269.1 325.25 2265.7 322.1 2271.25 316.55 2272.7
    311.85 2273.7 308.6 2273.7 300.1 2273.7 284.15 2264.9 275.25 2255.5 265.75 2237.7
    266.1 2232.35 260.35 2229.7 258.05 2225.25 254.1 2221.7 254.1 2211.5 254.1 2202.35
    261.8 2190.35 271.85 2189.7 290.1 2187.1 287.5 2181.7 286.6 2178.7 286.1 2173.7
    286.1 2173.7 288.1 2171.7 292.1 2169.7 296.1 2169.7 298.1 2168.45 298.1 2162.95
    294.1 2157.45 290.1 2151.7 290.1 2145.35 290.1 2142.45 292.6 2139.7 296.1 2137.7
    298.1 2141.7 289.3 2136.15 279.3 2130.2 268.6 2117.7 266.1 2116.85 263.15 2117.35
    254.55 2117.85 245.5 2117 241.35 2113.95 226.35 2089.7 230.1 2095.35 213.55 2084.95
    203.3 2075.65 194.1 2059.2 194.1 2058.2 194.1 2051.4 196.5 2042.9 199.5 2035.35
    203.15 2012.05 214.45 2000.65 228.85 1986 229.1 1974.45 233.75 1952.45 242.55
    1933.1 267.2 1922.15 281.3 1913.3 298.5 1905.9 312.8 1905.9 316 1905.9 320.65
    1913.9 335.25 1921.9 349.85 1921.9 353.6 1913.45 353.6 1906.65 356.5 1900.3 359.2
    1894.7 364.8\r\nL 1894.7 361.6\r\nQ 1893.65 350.25 1883.7 343.15 1875.9 337.6
    1869.1 337.6 1870.75 335.45 1869.95 330 1869.05 323.75 1865.25 318.15 1854.65
    302.4 1829.9 302.4 1816.75 302.4 1803.55 312.15 1798.15 316.1 1794.6 320.55 1791.1
    324.9 1790.7 328 1782.7 323.25 1768.15 325.7 1753.65 328.2 1738.85 336.7 1722.85
    345.9 1712.25 358.95 1700.3 373.7 1697.9 390.4 1670.95 390.4 1660.65 411.4 1651.8
    429.45 1657.9 454.4 1657.35 454.4 1650.65 457.65 1643.65 461.05 1641.9 462.4 1640.6
    457.95 1636.4 452.3 1632 446.4 1626.3 441.7 1612.05 430.05 1600.3 433.6 1601.7
    426.75 1599.15 414.6 1596.35 401.15 1590.15 389.5 1582.8 375.7 1572.6 368.45 1562.5
    361.25 1550.55 361.35\r\nL 1550.5 361.35\r\nQ 1549.05 361.35 1547.55 361.45\r\nL
    1547.5 361.45 1547.5 361.6 1550.3 361.6\r\nQ 1549.120703125 361.6220703125 1547.5
    361.9 1541.6 362.85 1529.65 366.8 1510.15 373.15 1501.1 380.8 1485.1 394.3 1478
    422.7 1474 438.6 1473.9 450.7 1474.75 450.9 1475.5 451.2\r\nL 1477.9 452.8 1475.5
    452.8 1475.5 451.2 1473.9 451.2\r\nQ 1473.9 450.95 1473.9 450.7 1465.75 448.45
    1450.15 453.5 1432.65 459.15 1427.5 467.2 1430 453.45 1410.15 443.55 1404.2 440.55
    1393.8 436.85 1383.4 433.15 1381.1 432 1382.25 422.35 1381.65 416.15 1380.45 404.5
    1371.5 401.6 1375.95 397.15 1378.05 389.9 1379.5 384.85 1379.5 380 1379.5 374.2
    1373.05 364.95 1366.85 356.1 1357.1 347.3 1346.9 338.1 1336.7 332.55 1325.45 326.4
    1317.1 326.4 1294 326.4 1277.4 339.1 1271.1 343.9 1266.95 349.7 1263.4 354.7 1262.7
    358.4 1261.25 358.4 1251.7 354.4 1242.15 350.4 1236.3 350.4 1223.65 350.4 1203
    362.25 1181.7 374.5 1161.95 393.7 1139.9 415.1 1127.05 438.5 1112.3 465.3 1112.3
    490.4 1112.3 492.7 1113.1 497.3 1113.9 501.9 1113.9 502.4 1113.4 502.4 1100.4
    500.8 1087.4 499.2 1085.1 499.2 1058.8 499.2 1037.2 508.75 1002.75 524 989 560.55
    988.2 562.65 987.5 564.8\r\nL 987.5 560\r\nQ 982.2 519.75 955.25 493.4 943.15
    481.6 928.75 475.2 914.45 468.8 900.3 468.8 898 468.8 891 470.4 884 472 883.5
    472 885.1 468.4 886.2 464.35 888.3 456.55 888.3 444.8 888.3 404.15 854.95 382.65
    843.75 375.4 830.1 371.25 820.65 368.4 814.7 368 819.3 349.95 801.4 337.15 794.3
    332.1 785.2 329.15 776.8 326.4 769.9 326.4 746.9 326.4 740.95 331.6 740.35 332.1
    736.25 337.2 733.6 340.5 729.85 343.05 730.1 334.75 729.35 330.7 727.8 322.35
    718.7 322.35 715.85 322.35 712.1 323.35 708.35 324.35 707.7 324.35 706.4 319.8
    703.4 315.85 697.5 308.1 687.45 308.1 684.95 308.1 680.95 310.1 676.95 312.1 674.45
    312.1 673.65 312.1 669.75 310.1 665.9 308.1 659.45 308.1 650.6 308.1 648.05 309.25
    643.35 311.4 639.45 320.35 633 318.25 624.9 320.85 617.05 323.35 609.9 329.45
    602.5 335.75 598.2 344 593.45 353 593.45 362.35 593.45 365.85 593.7 366.5 593.8
    366.7 595.45 368.35 594.75 368.4 594.05 368.5 587.05 369.4 580.6 376.25 573.85
    383.45 573.45 390.35\r\nL 575.4 390.35\r\nQ 573.4 390.4 560.15 394.35 546.75 398.35
    545.45 398.35 538.15 384.15 518.6 371.05 499.6 358.35 487.2 358.35 480.8 358.35
    474.85 363 467.2 368.95 469.2 378.35 453.9 372.85 447.1 393.5 443.2 405.35 443.2
    418.35 443.2 421.25 443.1 426.05 443.15 429.95 443.95 432.5 445.9 438.7 455.2
    444.35 448.85 448.3 446.45 451.9 445.2 453.8 445.2 455.35 445.2 458.3 449.2 466.4
    453.2 474.55 453.2 476.35\r\nL 453.2 484.6\r\nQ 437.85 490.65 433.35 494.15 424.6
    500.9 429.2 510.6 420.05 512.65 416.25 519.05 413.7 523.3 413.3 530 416 532.35
    413.25 530.65 413.2125 531.1 413.2 531.55\r\nL 413.2 532.6 413.2 531.55 413.2
    530.6 413.25 530.65\r\nQ 413.25 530.3 413.3 530 412.55 529.35 411.45 528.45 406.85
    524.6 405.2 524.6 402.35 524.6 399.1 526.6 395.85 528.6 395.2 528.6 392.7 507.6
    380.55 502.5 368.4 497.4 363.3 500 358.2 502.6 356.95 503.15 353.85 504.45 353.2
    510.6 351.9 508.6 351.2 507.85 350.05 506.6 346.95 506.6 346.15 506.6 343.5 507.45
    339.8 508.65 336.65 510.65 326.95 516.75 326.95 527.6 326.95 529.95 329.5 535.5
    330.85 538.4 332.95 542.6 325.2 548.2 322.55 558.85 320.95 565.25 320.95 576.6
    315.75 576.25 311.35 581.3 306.95 586.35 306.95 592.6 306.95 596.1 307.2 597.75
    307.25 598.1 308.05 602.05 308.2 602.35 308.35 602.65 308.8 603.75 309.35 606
    309.7 607.15 310.25 607.9 309.7 607.15 309.35 606 308.8 603.75 308.35 602.65 308.2
    602.35 308.05 602.05 308.4 603.9 308.95 606.6 308.4 603.9 308.05 602.05 306.1
    598.6 299.95 598.6 294.45 598.6 290.45 602.25 289.75 602.85 286.95 606.6 284.65
    603.25 282.75 600.95 279.2 596.6 275.95 596.6 275.6 596.6 269.95 599.6 264.35
    602.6 263.95 602.6 263.85 602.6 260.3 599.6 256.75 596.6 254.95 596.6 252.5 596.6
    248.25 600.3 242.55 605.2 240.95 612.6 232.15 609.55 228.1 617.3 225.15 622.9
    224.95 633.1\r\nL 224.95 634.6 224.95 633.1 224.95 632.6\r\nQ 220.1 632.85 215.35
    634.15 209.2 635.8 204.95 638.85 205.15 634.5 204.25 632.65 202.9 630.05 196.95
    624.6\r\nL 186.95 624.6\r\nQ 185.55 622 184.85 620.6 183.5 618.15 182.2 616.75
    178.4 612.6 170.7 612.6 162.2 612.6 158.6 611.6 154.95 610.6 148.7 610.6 133.95
    610.6 128.1 623.2 124.7 630.45 124.7 640.85 118.6 641.85 112.9 649.1 105.7 658.2
    106.7 670.85 107.1 675.7 105.65 679.4 104.9 681.4 102.75 684.45 98.55 693.3 97.65
    698.4 96.7 703.5 98.7 712.25 99.4 715.3 99.85 717.5 100.25 718.15 100.45 718.95
    100.6 719.45 100.65 720.05 100.7 720.4 100.7 720.85\r\nL 100.7 722.75\r\nQ 100.65
    721.45 99.85 717.5 99.75 717.3 99.6 717.1 98 714.85 94.7 714.85 91.4 714.85 85.75
    717.4 80.1 720.25 78.7 720.85 77 717.2 72.75 713.25 68 708.85 64.7 708.85 61.65
    708.85 57.85 712.4 53.75 716.25 52.7 720.85 50.8 718.95 46.2 716.3 40.25 712.85
    36.7 712.85 29.6 712.85 21.35 721.55 12 731.4 0 742.85\r\nL 0.1 952.3 597.15 952.3
    597.1 952 598.7 951.2 598.7 952.3 2549.9 952.3 2549.9 951.7\r\nQ 2550.25 952.05
    2551.1 952.3 2551.3 952.35 2551.5 952.4 2551.7 952.35 2551.9 952.3 2552.5 952.1
    2553.3 951.8\r\nL 2553.3 952.3 6357.1 952.3 6357.1 504 6357.1 502.7 6357.1 504
    6359.3 502.7\r\nQ 6360.3 501.2 6360.3 498.4 6360.3 488.4 6334.15 484.8 6325.9
    483.65 6316 483.35 6307.65 483.2 6307.5 483.2 6277.6 483.2 6265 492.95 6260.8
    496.2 6257.6 501.35 6254.65 506.75 6253.1 508.8 6253.1 504.15 6257.2 490.65\r\nL
    6257.2 490.6\r\nQ 6257.9 488.25 6258.7 485.7 6264.3 468.05 6264.3 460 6264.3 441.3
    6252.75 426.4 6241.05 411.2 6225.9 411.2 6225.9 398.2 6231.5 374.15 6237.1 350.1
    6237.1 348 6237.1 342.3 6233.95 333.25\r\nM 4560.1 771.6\r\nQ 4565.35 771.6 4567.95
    774.9 4568.45 767.2 4574.2 764.55 4578.35 762.6 4582.3 763.6 4578.35 762.6 4574.2
    764.55 4568.45 767.2 4567.95 774.9 4568.1 775.1 4568.25 775.3 4569.3 776.75 4570.35
    779.25 4570.7 780.15 4571.1 781.2 4570.7 780.15 4570.35 779.25 4569.3 776.75 4568.25
    775.3 4568.1 775.1 4567.95 774.9 4567.9 775.6 4567.9 776.4 4567.9 775.6 4567.95
    774.9 4565.35 771.6 4560.1 771.6 4558.35 771.6 4557.4 772.15 4555.1 773.45 4547.3
    779.6 4555.1 773.45 4557.4 772.15 4558.35 771.6 4560.1 771.6\r\nM 4644.1 705\r\nQ
    4649.3 705 4650 705.35 4650.8 705.7 4650.5 708.2 4650.8 705.7 4650 705.35 4649.3
    705 4644.1 705 4640.25 705 4635.95 708.15 4629.4 712.95 4629.9 722.4 4629.4 712.95
    4635.95 708.15 4640.25 705 4644.1 705\r\nM 4520.95 643\r\nL 4529.9 643\r\nQ 4533.9
    646.2 4534.7 649.4 4535.1 651 4534.7 652.6 4535.1 651 4534.7 649.4 4533.9 646.2
    4529.9 643\r\nL 4520.95 643\r\nQ 4520.7 643.8 4520.3 644.6\r\nL 4520.3 643 4520.95
    643\r\nQ 4522.55 638.05 4519.35 633.15 4514.65 625.9 4501.3 627.2 4514.65 625.9
    4519.35 633.15 4522.55 638.05 4520.95 643\r\nM 4477.1 737.4\r\nQ 4477.8 736.8
    4479.1 736.6 4477.8 736.8 4477.1 737.4 4473.1 740.65 4467.9 744.6 4473.1 740.65
    4477.1 737.4\r\nM 4456.4 743.55\r\nQ 4456.8 743 4457.25 742.95 4457.65 742.95
    4459.9 743 4463.75 743 4464.7 743.45 4466.75 744.4 4471.1 749.4 4466.75 744.4
    4464.7 743.45 4463.75 743 4459.9 743 4457.65 742.95 4457.25 742.95 4456.8 743
    4456.4 743.55 4454.15 746.4 4447.3 751 4454.15 746.4 4456.4 743.55\r\nM 4620.3
    828.8\r\nQ 4620.3 822.05 4624.25 817.65 4626.2 815.4 4628.3 814.4 4626.2 815.4
    4624.25 817.65 4620.3 822.05 4620.3 828.8\r\nM 2132.35 393.35\r\nQ 2135.6 392.35
    2138.7 392.35 2145.45 392.35 2147.15 401.25 2147.7 404.25 2147.7 416.35 2149.25
    415.15 2154.25 412.7 2159.05 410.35 2159.7 410.35 2162.85 410.35 2164.35 411.45
    2165.7 412.45 2165.7 414.35\r\nL 2165.7 416.2\r\nQ 2165.684375 415.75625 2165.45
    415.1 2164.95 413.6 2164.35 411.45 2162.85 410.35 2159.7 410.35 2159.05 410.35
    2154.25 412.7 2149.25 415.15 2147.7 416.35 2147.7 404.25 2147.15 401.25 2145.45
    392.35 2138.7 392.35 2135.6 392.35 2132.35 393.35\r\nL 2129.7 394.35 2132.35 393.35\r\nM
    2193.7 368.35\r\nQ 2198.2 358.25 2201.75 356.75 2201.9 356.7 2204.55 356.1 2206.3
    355.7 2207.7 354.35 2206.3 355.7 2204.55 356.1 2201.9 356.7 2201.75 356.75 2198.2
    358.25 2193.7 368.35\r\nM 2219.7 592.6\r\nL 2223.35 591.6\r\nQ 2227.6 590.6 2230.7
    590.6 2232.55 590.6 2236.8 598.05 2241.45 606.15 2241.95 612.6 2242.95 611.6 2244.35
    609.85 2245.8 608.6 2248.95 608.6 2252.1 608.6 2254.35 609.6 2255.45 610.1 2255.95
    610.6\r\nL 2256.35 612.55 2256.7 614.35\r\nQ 2257.15 616.6 2255.95 616.6\r\nL
    2256.35 612.55 2255.95 610.6\r\nQ 2255.45 610.1 2254.35 609.6 2252.1 608.6 2248.95
    608.6 2245.8 608.6 2244.35 609.85 2242.95 611.6 2241.95 612.6 2241.45 606.15 2236.8
    598.05 2232.55 590.6 2230.7 590.6 2227.6 590.6 2223.35 591.6\r\nL 2219.7 592.6\r\nM
    2162.45 749.6\r\nQ 2167.95 754 2169.7 762.85\r\nL 2171.7 758.85 2169.7 762.85\r\nQ
    2167.95 754 2162.45 749.6 2159 746.85 2156.7 746.85 2153.6 746.85 2149.35 747.85\r\nL
    2145.7 748.85 2149.35 747.85\r\nQ 2153.6 746.85 2156.7 746.85 2159 746.85 2162.45
    749.6\r\nM 2552.55 507.35\r\nQ 2554.05 506.4 2554.25 505.15\r\nL 2553.5 513.8\r\nQ
    2553.5 510.15 2552.55 507.35\r\nM 2327.95 558.6\r\nL 2337.95 550.6\r\nQ 2340.1
    552.25 2342.9 554.4 2344.6 556.35 2343.95 560.6\r\nL 2344.95 560.35\r\nQ 2345.95
    559.85 2345.95 558.6 2352.35 556.85 2355.5 561.45 2357.15 563.85 2357.95 568.6\r\nL
    2359.95 568.6 2359.95 570.6 2359.95 568.6 2357.95 568.6\r\nQ 2357.15 563.85 2355.5
    561.45 2352.35 556.85 2345.95 558.6 2345.95 559.85 2344.95 560.35\r\nL 2343.95
    560.6\r\nQ 2344.6 556.35 2342.9 554.4 2340.1 552.25 2337.95 550.6\r\nL 2327.95
    558.6\r\nM 2352.95 650.85\r\nQ 2360.6 650.85 2363.5 652.9 2364.75 653.8 2365.95
    656.85 2364.75 653.8 2363.5 652.9 2360.6 650.85 2352.95 650.85 2346.05 650.85
    2340.45 654.2 2335.85 656.95 2327.95 664.85\r\nL 2327.95 676.85\r\nQ 2324.05 679.65
    2322.3 681.8 2317.95 687.25 2317.95 694.85 2317.95 697.05 2318.55 699.4 2322.1
    700.75 2319.95 704.85 2319.95 704.25 2318.95 701 2318.7 700.2 2318.55 699.4 2318.35
    699.35 2318.2 699.3 2316.7 698.85 2311.95 698.85 2305.95 698.85 2305.95 702.85
    2301.95 695.85 2299.95 692.85\r\nL 2289.95 692.85 2289.95 694.35 2289.95 696.85
    2289.95 694.35\r\nQ 2289.883203125 691.6580078125 2289.7 690.1 2289.25 686.15
    2287.95 684.85 2285.1 685.1 2281.35 684.9 2278.8 684.75 2277.85 685.25 2276 686.05
    2269.95 696.85 2276 686.05 2277.85 685.25 2278.8 684.75 2281.35 684.9 2285.1 685.1
    2287.95 684.85 2289.25 686.15 2289.7 690.1 2289.883203125 691.6580078125 2289.95
    694.35\r\nL 2289.95 692.85 2299.95 692.85\r\nQ 2301.95 695.85 2305.95 702.85 2305.95
    698.85 2311.95 698.85 2316.7 698.85 2318.2 699.3 2318.35 699.35 2318.55 699.4
    2317.95 697.05 2317.95 694.85 2317.95 687.25 2322.3 681.8 2324.05 679.65 2327.95
    676.85\r\nL 2327.95 664.85\r\nQ 2335.85 656.95 2340.45 654.2 2346.05 650.85 2352.95
    650.85\r\nM 150.7 726.85\r\nL 154.35 725.85\r\nQ 158.6 724.85 161.7 724.85 162.65
    724.85 166.75 732.75 170.7 740.35 170.7 740.85 173.7 738.35 176.85 736.75 182.65
    733.75 186.95 734.85\r\nL 188.95 734.85 186.95 734.85\r\nQ 182.65 733.75 176.85
    736.75 173.7 738.35 170.7 740.85 170.7 740.35 166.75 732.75 162.65 724.85 161.7
    724.85 158.6 724.85 154.35 725.85\r\nL 150.7 726.85\r\nM 285.9 664.6\r\nQ 286.75
    663.85 287.95 663.85 291.8 663.85 294.75 669.8 297.2 674.8 297.05 677.85 298.2
    675.25 298.45 675.1 298.8 674.85 301.55 674.85 304.2 674.85 304.9 675.2 306.3
    675.85 308.05 678.85 306.3 675.85 304.9 675.2 304.2 674.85 301.55 674.85 298.8
    674.85 298.45 675.1 298.2 675.25 297.05 677.85 297.2 674.8 294.75 669.8 291.8
    663.85 287.95 663.85 286.75 663.85 285.9 664.6 284.5 665.85 281.95 666.85 284.5
    665.85 285.9 664.6\r\nM 220.95 790.95\r\nQ 219.95 787.95 219.95 785.45 219.95
    781.75 225.35 780.15 226.5 779.8 232.95 778.95 226.5 779.8 225.35 780.15 219.95
    781.75 219.95 785.45 219.95 787.95 220.95 790.95\r\nM 393.2 599.7\r\nQ 394.1 599.7
    396.3 601.6\r\nL 396.35 601.65\r\nQ 399.05 603.9 397.2 602.7\r\nL 396.2 602.7
    396.3 601.6\r\nQ 394.1 599.7 393.2 599.7 389.2 599.7 384.2 602.75 377.2 606.95
    377.2 614.2 377.2 615.85 377.45 616.5 377.7 617.2 379.2 620.7 377.7 617.2 377.45
    616.5 377.2 615.85 377.2 614.2 377.2 606.95 384.2 602.75 389.2 599.7 393.2 599.7\r\nM
    70.7 816.95\r\nQ 71.3 815.9 73.75 814.45 76.3 812.95 77.7 812.95 76.3 812.95 73.75
    814.45 71.3 815.9 70.7 816.95 70.7 816.05 68.85 813.15 66.85 809.95 65.7 809.95
    64.15 809.95 61.75 810.45\r\nL 59.7 810.95 61.75 810.45\r\nQ 64.15 809.95 65.7
    809.95 66.85 809.95 68.85 813.15 70.7 816.05 70.7 816.95\r\nM 4520.95 643\r\nL
    4520.3 643 4520.3 644.6\r\nQ 4520.7 643.8 4520.95 643 Z\"/>\r\n</g>\r\n\r\n<path
    id=\"Symbol_2_0_Layer0_0_1_STROKES\" stroke=\"#000000\" stroke-width=\"1.5\" stroke-linejoin=\"round\"
    stroke-linecap=\"round\" fill=\"none\" d=\"\r\nM 5461.1 472\r\nQ 5459.9 466.4
    5459.7 465.3 5459.5 464.2 5459.5 461.6 5459.5 449 5469.1 448.05 5473.9 447.55
    5478.7 449.6 5479.7 449.6 5480.1 448.85 5480.35 448.4 5480.8 447.2 5482.2 444.8
    5488.3 444.8 5502.45 444.8 5509.3 458.15 5515.55 470.3 5512.3 484.8 5512.8 484.8
    5514.6 484 5516.4 483.2 5518.7 483.2 5525.85 483.2 5532.6 487.7 5543.85 495.25
    5542.7 512\r\nL 5542.7 513.6\r\nQ 5543.45 513.1 5544 512 5544.5 510.95 5545.25
    510.45 5547.85 508.8 5559.5 508.8 5564.8 508.8 5570.4 510.2 5577.3 511.95 5581.1
    515.2\r\nL 5582.7 517\r\nQ 5584.25 518.95 5584.3 519.95 5584.25 518.3 5582.7 509.1
    5581.1 499.7 5581.1 497.6 5581.1 482.4 5585.5 473.7 5592.1 460.55 5608.3 462.4
    5608.3 461.9 5606.7 453.7 5605.1 445.5 5605.1 443.2 5605.1 432.5 5610.6 420.5
    5616.2 408.4 5625.7 398.6 5635.85 388.15 5648.05 383 5661.55 377.35 5675.5 379.2
    5676.25 342.7 5699.6 321.95 5723.35 300.8 5765.1 300.8 5780.85 300.8 5790.7 304.7
    5803.1 309.6 5803.5 320 5804 320 5807.4 318.4 5810.8 316.8 5813.1 316.8 5822.2
    316.8 5833.4 323.4 5843.4 329.3 5853.1 339.25 5862.25 348.55 5868 358.25 5873.9
    368.1 5873.9 374.4 5873.9 376.4 5872.3 386 5870.7 395.6 5870.7 397.6 5870.7 400.1
    5871.45 401.1 5871.9 401.65 5873.1 402.6 5875.5 405.4 5875.5 418.4 5875.5 423.25
    5871.5 438.35 5867.5 453.45 5867.5 454.4 5876.15 449.6 5877.1 449.6 5886.9 449.6
    5888.1 459.2 5888.45 461.85 5888.2 467.15 5887.95 472 5888.3 473.6 5896.3 468.8
    5902.7 468.8 5914.9 468.8 5919.65 476.4 5921.9 480 5922.2 484 5926.4 472.25 5932.9
    463.2 5946.7 444.05 5963.5 451.2 5964.9 424.4 5977.1 397.3 5989 371 6008.7 349.6
    6028.75 327.75 6052.9 315.45 6078.45 302.4 6104.3 302.4 6111.25 302.4 6113.95
    305.3 6114.85 306.3 6115.5 308.8 6117.95 306.35 6123.3 300.9 6128.25 296.15 6133.15
    293.15 6146.4 284.8 6165.9 284.8 6202.35 284.8 6222.75 312.05 6229.9 321.65 6233.95
    333.25 6237.1 342.3 6237.1 348 6237.1 350.1 6231.5 374.15 6225.9 398.2 6225.9
    411.2 6241.05 411.2 6252.75 426.4 6264.3 441.3 6264.3 460 6264.3 468.05 6258.7
    485.7 6257.9 488.25 6257.2 490.6\r\nL 6257.2 490.65\r\nQ 6253.1 504.15 6253.1
    508.8 6254.65 506.75 6257.6 501.35 6260.8 496.2 6265 492.95 6277.6 483.2 6307.5
    483.2 6307.65 483.2 6316 483.35 6325.9 483.65 6334.15 484.8 6360.3 488.4 6360.3
    498.4 6360.3 501.2 6359.3 502.7 6358.45 504 6357.1 504\r\nL 6357.1 952.3 2553.3
    952.3 2551.9 952.3\r\nM 2551.1 952.3\r\nL 2549.9 952.3 598.7 952.3 597.15 952.3
    0.1 952.3 0 742.85\r\nQ 12 731.4 21.35 721.55 29.6 712.85 36.7 712.85 40.25 712.85
    46.2 716.3 50.8 718.95 52.7 720.85 53.75 716.25 57.85 712.4 61.65 708.85 64.7
    708.85 68 708.85 72.75 713.25 77 717.2 78.7 720.85 80.1 720.25 85.75 717.4 91.4
    714.85 94.7 714.85 98 714.85 99.6 717.1 99.75 717.3 99.85 717.5 99.4 715.3 98.7
    712.25 96.7 703.5 97.65 698.4 98.55 693.3 102.75 684.45 104.9 681.4 105.65 679.4
    107.1 675.7 106.7 670.85 105.7 658.2 112.9 649.1 118.6 641.85 124.7 640.85 124.7
    630.45 128.1 623.2 133.95 610.6 148.7 610.6 154.95 610.6 158.6 611.6 162.2 612.6
    170.7 612.6 178.4 612.6 182.2 616.75 183.5 618.15 184.85 620.6 185.55 622 186.95
    624.6\r\nL 196.95 624.6\r\nQ 202.9 630.05 204.25 632.65 205.15 634.5 204.95 638.85
    209.2 635.8 215.35 634.15 220.1 632.85 224.95 632.6\r\nL 224.95 633.1\r\nQ 225.15
    622.9 228.1 617.3 232.15 609.55 240.95 612.6 242.55 605.2 248.25 600.3 252.5 596.6
    254.95 596.6 256.75 596.6 260.3 599.6 263.85 602.6 263.95 602.6 264.35 602.6 269.95
    599.6 275.6 596.6 275.95 596.6 279.2 596.6 282.75 600.95 284.65 603.25 286.95
    606.6 289.75 602.85 290.45 602.25 294.45 598.6 299.95 598.6 306.1 598.6 308.05
    602.05 307.25 598.1 307.2 597.75 306.95 596.1 306.95 592.6 306.95 586.35 311.35
    581.3 315.75 576.25 320.95 576.6 320.95 565.25 322.55 558.85 325.2 548.2 332.95
    542.6 330.85 538.4 329.5 535.5 326.95 529.95 326.95 527.6 326.95 516.75 336.65
    510.65 339.8 508.65 343.5 507.45 346.15 506.6 346.95 506.6 350.05 506.6 351.2
    507.85 351.9 508.6 353.2 510.6 353.85 504.45 356.95 503.15 358.2 502.6 363.3 500
    368.4 497.4 380.55 502.5 392.7 507.6 395.2 528.6 395.85 528.6 399.1 526.6 402.35
    524.6 405.2 524.6 406.85 524.6 411.45 528.45 412.55 529.35 413.3 530 413.7 523.3
    416.25 519.05 420.05 512.65 429.2 510.6 424.6 500.9 433.35 494.15 437.85 490.65
    453.2 484.6\r\nL 453.2 476.35\r\nQ 453.2 474.55 449.2 466.4 445.2 458.3 445.2
    455.35 445.2 453.8 446.45 451.9 448.85 448.3 455.2 444.35 445.9 438.7 443.95 432.5
    443.15 429.95 443.1 426.05 443.2 421.25 443.2 418.35 443.2 405.35 447.1 393.5
    453.9 372.85 469.2 378.35 467.2 368.95 474.85 363 480.8 358.35 487.2 358.35 499.6
    358.35 518.6 371.05 538.15 384.15 545.45 398.35 546.75 398.35 560.15 394.35 573.4
    390.4 575.4 390.35\r\nL 573.45 390.35\r\nQ 573.85 383.45 580.6 376.25 587.05 369.4
    594.05 368.5 594.75 368.4 595.45 368.35 593.8 366.7 593.7 366.5 593.45 365.85
    593.45 362.35 593.45 353 598.2 344 602.5 335.75 609.9 329.45 617.05 323.35 624.9
    320.85 633 318.25 639.45 320.35 643.35 311.4 648.05 309.25 650.6 308.1 659.45
    308.1 665.9 308.1 669.75 310.1 673.65 312.1 674.45 312.1 676.95 312.1 680.95 310.1
    684.95 308.1 687.45 308.1 697.5 308.1 703.4 315.85 706.4 319.8 707.7 324.35 708.35
    324.35 712.1 323.35 715.85 322.35 718.7 322.35 727.8 322.35 729.35 330.7 730.1
    334.75 729.85 343.05 733.6 340.5 736.25 337.2 740.35 332.1 740.95 331.6 746.9
    326.4 769.9 326.4 776.8 326.4 785.2 329.15 794.3 332.1 801.4 337.15 819.3 349.95
    814.7 368 820.65 368.4 830.1 371.25 843.75 375.4 854.95 382.65 888.3 404.15 888.3
    444.8 888.3 456.55 886.2 464.35 885.1 468.4 883.5 472 884 472 891 470.4 898 468.8
    900.3 468.8 914.45 468.8 928.75 475.2 943.15 481.6 955.25 493.4 982.2 519.75 987.5
    560\r\nL 987.5 564.8\r\nQ 988.2 562.65 989 560.55 1002.75 524 1037.2 508.75 1058.8
    499.2 1085.1 499.2 1087.4 499.2 1100.4 500.8 1113.4 502.4 1113.9 502.4 1113.9
    501.9 1113.1 497.3 1112.3 492.7 1112.3 490.4 1112.3 465.3 1127.05 438.5 1139.9
    415.1 1161.95 393.7 1181.7 374.5 1203 362.25 1223.65 350.4 1236.3 350.4 1242.15
    350.4 1251.7 354.4 1261.25 358.4 1262.7 358.4 1263.4 354.7 1266.95 349.7 1271.1
    343.9 1277.4 339.1 1294 326.4 1317.1 326.4 1325.45 326.4 1336.7 332.55 1346.9
    338.1 1357.1 347.3 1366.85 356.1 1373.05 364.95 1379.5 374.2 1379.5 380 1379.5
    384.85 1378.05 389.9 1375.95 397.15 1371.5 401.6 1380.45 404.5 1381.65 416.15
    1382.25 422.35 1381.1 432 1383.4 433.15 1393.8 436.85 1404.2 440.55 1410.15 443.55
    1430 453.45 1427.5 467.2 1432.65 459.15 1450.15 453.5 1465.75 448.45 1473.9 450.7
    1474 438.6 1478 422.7 1485.1 394.3 1501.1 380.8 1510.15 373.15 1529.65 366.8 1541.6
    362.85 1547.5 361.9\r\nL 1547.5 361.6\r\nM 1545.9 361.6\r\nQ 1546.7 361.5 1547.5
    361.45\r\nM 5920.3 489.6\r\nQ 5921.15 486.7 5922.2 484 5922.3 485.95 5921.9 488\r\nM
    6357.1 504\r\nL 6357.1 502.7\r\nM 4373.1 520\r\nQ 4377.1 516.8 4379.8 514.4 4380.9
    513.6 4383.5 513.6 4387.5 513.6 4388.65 517.35 4389.95 521.45 4387.5 529.6 4388
    529.6 4388.6 528.8 4389.2 528 4391.5 528 4399.75 528 4402.55 541.15 4405.1 553
    4401.9 564.8 4415 558.3 4418.8 550.1 4420.5 546.35 4420.7 537.3 4420.85 530.65
    4425 528.25 4430.95 524.8 4449.1 524.8 4458.15 524.8 4462.35 528.55 4463.45 529.55
    4465.1 531.7 4466.55 533.7 4467.5 534.4 4465.9 528.6 4468.55 520.5 4471.45 511.7
    4478.3 504.15 4495.7 484.8 4526.7 484.8 4547.55 484.8 4552.4 496.25 4553.95 499.9
    4553.95 505.3 4553.95 508.15 4553.9 512 4559 509.2 4565.65 514.5 4571.75 519.4
    4577.65 529.8 4583.4 539.9 4586.95 551.75 4590.7 564.2 4590.7 574.4 4590.7 591
    4585.5 598.5 4583.8 600.85 4581.65 602.15 4579.75 603.05 4579.5 603.2 4587.5 610.3
    4587.5 620.8 4587.5 626.65 4580.35 637.15 4572.6 647.4 4571.5 649.6 4587.15 649.6
    4595.8 659.2 4603.4 667.7 4601.9 678.4\r\nL 4601.9 680\r\nQ 4602.05 674.95 4610.35
    670.3 4618.55 665.7 4624.3 667.2 4621.7 658.1 4629.9 648.4 4638.35 638.4 4649.9
    638.4 4653.7 638.4 4661.1 644.8 4661.35 640 4663.85 634.1 4666.95 626.75 4672.35
    620.85 4686.95 604.8 4713.1 604.8 4721.25 604.8 4731.05 613.05 4739.9 620.55 4748.05
    632.85 4755.9 644.7 4760.2 656.6 4764.65 669.05 4763.5 676.8\r\nL 4763.5 678.4\r\nQ
    4767.25 673.4 4768.9 672.1 4773 668.8 4779.5 668.8 4790.05 668.8 4797.95 678.1
    4801.8 682.65 4803.6 687.1 4804.45 671.15 4811.65 656.55 4821.95 635.6 4840.3
    633.6 4839.8 626.65 4842.6 615.2 4846.2 600.55 4853.55 588.35 4874.5 553.6 4916.3
    553.6 4931.65 553.6 4937.1 559.15 4938.65 560.75 4940.2 563.9 4941.7 567 4942.7
    568 4942.8 568 4943.7 566.9 4944.85 565.65 4946.25 564.75 4950.95 561.6 4959.5
    561.6 4967.3 561.6 4975 566.35 4982 570.7 4987.15 577.9 4992.2 584.9 4993.7 592.05
    4995.3 599.65 4992.3 604.8 5002.8 604.8 5014.9 614.85 5027.95 625.7 5029.1 638.4
    5030.6 638.4 5038.8 636.8 5047 635.2 5049.1 635.2 5071.4 635.2 5077.65 638.65
    5079.9 639.85 5081.2 642.2 5081.8 643.25 5082.9 645.25 5081.75 640 5080.45 632.45
    5078.7 622.45 5078.7 620 5078.7 600.7 5083.8 593.25 5085.4 590.8 5087.55 589.7
    5088.7 589.15 5089.9 588.8 5089.9 585.6 5085.9 578.45 5080.3 569.05 5077.1 562.9
    5064.3 538.4 5064.3 513.6 5064.3 490.05 5069.9 482.55 5071.4 480.55 5073.75 479.35
    5075.5 478.45 5075.5 477.6 5075.5 475.6 5073.9 465.2 5072.3 454.8 5072.3 452.8
    5072.3 433.95 5086.65 411.5 5099.15 391.9 5120.3 372.8 5139.5 355.4 5159.4 344.05
    5179.05 332.8 5189.9 332.8 5228.3 332.8 5252.85 346.6 5276.4 359.85 5278.7 380.8\r\nL
    5280.3 384\r\nQ 5280.8 383.9 5283.25 380.75 5286.45 377.6 5290.7 377.6 5316.55
    377.6 5329.95 395.2 5334.9 401.65 5337.45 409.75 5339.5 416.25 5339.5 421.6 5339.5
    425.35 5338.5 431.5 5337.4 438.35 5336.35 438.4 5336.8 438.4 5337.8 437.6 5338.8
    436.8 5341.1 436.8 5353 436.8 5357.3 459.25 5358.95 468.1 5358.85 477.8 5358.75
    486.55 5357.3 492.15 5358.1 491.65 5359.3 491 5364.7 488 5366.7 488 5367.25 488
    5372.05 489.95 5378.3 492.5 5383.75 495.65 5397.6 503.55 5401.95 512.4 5402.75
    494.8 5417.95 480.1 5423.85 474.3 5430.5 470.55 5436.45 467.2 5439.5 467.2 5444.45
    467.2 5452.3 470.4 5455.2 471.6 5457.75 472.75 5458.65 473.2 5459.5 473.6\r\nL
    5457.9 473.6\r\nQ 5457.9 473.35 5457.75 472.75\r\nM 5357.1 492.8\r\nQ 5357.2 492.5
    5357.3 492.15 5354 494.05 5357.1 492.8 Z\r\nM 5401.95 512.4\r\nQ 5403 514.6 5403.5
    516.8\r\nL 5403.5 518.375\r\nQ 5403.4875 517.890625 5402.7 517.3 5401.9 516.7
    5401.9 514.4 5401.9 513.4 5401.95 512.4 Z\r\nM 4547.3 779.6\r\nQ 4555.1 773.45
    4557.4 772.15 4558.35 771.6 4560.1 771.6 4565.35 771.6 4567.95 774.9 4568.45 767.2
    4574.2 764.55 4578.35 762.6 4582.3 763.6\r\nM 4567.9 776.4\r\nQ 4567.9 775.6 4567.95
    774.9 4568.1 775.1 4568.25 775.3 4569.3 776.75 4570.35 779.25 4570.7 780.15 4571.1
    781.2\r\nM 4629.9 722.4\r\nQ 4629.4 712.95 4635.95 708.15 4640.25 705 4644.1 705
    4649.3 705 4650 705.35 4650.8 705.7 4650.5 708.2\r\nM 4803.6 692.8\r\nL 4805.1
    692.8\r\nQ 4804.8 689.95 4803.6 687.1\r\nL 4803.6 691.2\r\nM 4803.6 692.8\r\nL
    4801.9 692.8\r\nM 5082.9 645.25\r\nQ 5083.15 645.8 5083.5 646.4\r\nL 5083.5 648\r\nQ
    5083.2 646.7 5082.9 645.25 Z\r\nM 3888.3 211.2\r\nL 3904.3 211.2\r\nQ 3917 217.85
    3917.5 224.95 3917.6 227.1 3916.6 230.65 3915.5 234.45 3915.5 236 3915.5 237 3921.1
    240.45 3926.7 245.2 3926.7 252.8 3926.7 255.4 3925.7 257.9 3925.5 258.4 3923.5
    262.4\r\nL 3923.5 265.6\r\nQ 3929.95 261.75 3937.15 269.85 3939.1 272 3942.7 277.05
    3945.95 281.65 3947.5 283.2 3947.5 278 3949.35 271.3 3951.65 263.1 3955.95 256.45
    3967.55 238.4 3989.1 238.4 3991.15 238.4 3994.3 239.4 3998.6 240.7 4001.9 243.2
    4003.05 241.2 4005.35 236.85 4007.65 233 4010.6 230.6 4018.7 224 4037.1 224 4057.7
    224 4069.2 241.15 4075.8 250.95 4077.05 260.2 4077.05 260.5 4077.1 260.8 4077.6
    260.8 4078.2 260 4078.8 259.2 4081.1 259.2 4094.05 259.2 4101.35 278.55 4104.3
    286.4 4105.1 294.9 4105.9 303.25 4104.3 308.8 4122.95 314.95 4128.95 322.25 4136.3
    331.25 4136.3 352.8 4136.3 362.85 4135.65 364.3 4135.25 365.2 4132.4 366.75\r\nM
    4133.1 368\r\nL 4144.3 368\r\nQ 4152.85 372.3 4157.6 382.1 4161.9 391 4161.9 401.6
    4161.9 403.85 4163.9 405.6 4165.1 406.65 4168.3 408.9 4174.7 414.15 4174.7 425.6
    4174.7 441.25 4163.5 454.1 4157.9 460 4155.8 462.6 4152.3 466.9 4152.3 470.4 4155.8
    470.4 4160.35 472.1 4166.25 474.3 4171 478.5 4184.3 490.3 4184.3 513.6 4184.3
    530.05 4179.5 544.8 4178.4 548.15 4176.2 553.7 4174.7 557.45 4174.7 558.4 4186.7
    554.75 4189.75 553.9 4201.75 550.4 4204.3 550.4 4212.95 550.4 4218.95 554 4224.65
    557.4 4229.1 564.8\r\nL 4230.1 566.6\r\nQ 4231.3 568.6 4232.3 569.6 4227.1 558.75
    4232.85 547.45 4237.7 538 4249.65 529.1 4259.5 521.75 4271.55 516.6 4282.3 512
    4287.5 512 4289.1 512 4296.95 521.65 4300.95 526.6 4305.9 532.8 4305.35 528.85
    4307.4 524.35 4309.65 519.45 4314.25 515.45 4325.6 505.6 4345.1 505.6 4358.2 505.6
    4366 511.9 4369.4 514.65 4371.55 518.4 4372.05 519.3 4372.55 520.25\r\nM 3136.3
    475.2\r\nQ 3143.2 477.9 3150.9 488.05 3154.8 493.2 3158.7 499.2\r\nL 3158.7 500.8\r\nQ
    3166.2 493.3 3182.6 486.55 3198.95 479.8 3205.1 481.6 3203.9 479.1 3196 468.15
    3186.85 455.55 3181.4 446.5 3161.9 414.2 3161.9 387.2 3161.9 360.4 3177.55 342.85
    3182.45 337.3 3192.1 329.45 3202.95 320.55 3206.7 316.8 3208.65 314.85 3215.25
    307.75 3222.2 300.55 3228.25 295.5 3246.7 280 3261.9 280 3274.35 280 3281.95 289.45
    3285.85 294.3 3288.3 300.8 3294.05 298.05 3295.7 297.5 3300.3 296 3306.7 296 3320.95
    296 3328.2 299.9 3330.65 301.2 3332.45 303.1 3333.45 304.1 3334.7 305.6\r\nL 3336.3
    305.6\r\nQ 3336.3 297.95 3330.7 280.5 3325.1 263.05 3325.1 255.2 3325.1 242.45
    3333.1 233.1 3335.1 230.75 3338.6 227.05 3341.1 224.05 3341.1 221.6 3341.1 219.6
    3339.5 207.6 3337.9 195.6 3337.9 193.6 3337.9 168.5 3350.95 140.6 3363.2 114.4
    3384.95 89.8 3406.25 65.7 3432.25 48.05 3458.9 29.95 3485.1 22.4 3497.65 18.85
    3516.2 20.3 3525.35 21 3527.5 20.95 3532.6 20.9 3534.7 19.2 3536.85 17.5 3541.65
    13.35 3546.5 9.5 3552.35 7.05 3568.95 0 3601.9 0 3645.35 0 3666.4 11.6 3690.25
    24.7 3693.1 56 3693.35 59.3 3695.2 62.2 3696.3 63.95 3699 67.45 3704.3 75.05 3704.3
    88 3704.3 95.75 3701.2 103.7 3699.6 107.7 3697.9 110.4\r\nL 3697.9 112\r\nQ 3703.6
    111 3709.55 114.65 3715.05 118.05 3718.8 124.15 3722.6 130.25 3722.8 136.35 3723.05
    143 3718.7 147.2\r\nL 3718.7 148.8\r\nQ 3719.95 147.55 3722.6 146.6 3725.45 145.6
    3728.3 145.6 3733.5 145.6 3737.8 148.35 3743.2 151.8 3744.3 158.4 3750.5 139.3
    3766.55 130.85 3781.05 123.2 3805.9 123.2 3824 123.2 3834.1 133.3 3841.45 140.65
    3841.9 148.8 3857.4 156.45 3862.05 161.15 3869.1 168.35 3869.1 181.6 3869.1 184.55
    3868.1 188.7 3867.15 192.75 3865.9 195.2\r\nL 3865.9 196.8\r\nQ 3866.4 196.8 3868.2
    196 3870 195.2 3872.3 195.2 3879.45 195.2 3882.4 201.5 3884.75 206.55 3883.5 209.6
    3884.35 209.6 3888.1 209.3\r\nL 3888.15 209.3\r\nQ 3888.65 209.25 3889.25 209.2\r\nM
    4132.4 366.75\r\nQ 4131.3 367.35 4129.9 368\r\nM 4372.55 520.25\r\nQ 4372.85 520.9
    4373.1 521.6 4371.5 520 4371.55 518.4\r\nM 4501.3 627.2\r\nQ 4514.65 625.9 4519.35
    633.15 4522.55 638.05 4520.95 643\r\nL 4529.9 643\r\nQ 4533.9 646.2 4534.7 649.4
    4535.1 651 4534.7 652.6\r\nM 4520.95 643\r\nQ 4520.7 643.8 4520.3 644.6\r\nL 4520.3
    643 4520.95 643 Z\r\nM 4467.9 744.6\r\nQ 4473.1 740.65 4477.1 737.4 4477.8 736.8
    4479.1 736.6\r\nM 4447.3 751\r\nQ 4454.15 746.4 4456.4 743.55 4456.8 743 4457.25
    742.95 4457.65 742.95 4459.9 743 4463.75 743 4464.7 743.45 4466.75 744.4 4471.1
    749.4\r\nM 4620.3 828.8\r\nQ 4620.3 822.05 4624.25 817.65 4626.2 815.4 4628.3
    814.4\r\nM 2709.9 472\r\nQ 2719.25 472 2731.35 481.5 2740.75 488.95 2742.7 492.8
    2746.8 489.1 2746.9 489.05 2748.6 488 2752.3 488 2769.1 488 2778.5 499.35 2780.85
    502.15 2784.9 508.85 2788.4 514.65 2790.7 516.8 2797.75 523.55 2803.5 530.5 2812.6
    541.55 2813.1 547.2 2819.7 542.95 2835 537.55 2853.05 531.2 2863.5 531.2 2865.85
    531.2 2867.85 532.85 2868.8 533.65 2870.7 536 2870.7 523.55 2889.05 509.2 2892.85
    506.2 2903.95 498.55 2912.5 492.6 2915.5 489.6 2916.55 488.6 2918.2 484.85 2920.3
    480.05 2921.6 477.3 2926.8 466.45 2933.1 462.4 2935.95 460.5 2953.8 454.45 2972.8
    448 2977.9 448 2980.2 448 2984.7 450.4 2986.95 451.6 2989.1 452.8 2989.25 452.8
    2991.8 450.4 2994.35 448 2995.5 448 3015.2 448 3025 457.9 3029.3 462.2 3030 467.25
    3030.7 472.35 3027.5 476.8 3036.9 477.9 3041.4 485.35 3045.1 491.45 3045.1 500.8
    3049.65 500.8 3056.55 504.85 3064.55 509.55 3065.9 515.2\r\nL 3065.9 516.8\r\nQ
    3067.9 511.45 3074.35 504.1 3083.3 493.9 3091.5 494.4 3091.5 482.4 3106.3 474.5
    3116.2 469.25 3136.55 474\r\nL 3136.6 474.05\r\nQ 3138 474.35 3139.5 474.75\r\nM
    2709.9 472\r\nQ 2705.5 472 2702.6 474.05 2700.2 476.3 2699.5 476.8 2700 475.15
    2700.3 473.5 2700.5 472.2 2700.6 470.95 2701.3 460.5 2692.55 451.95 2682 441.6
    2666.7 441.6 2659.9 441.6 2650.05 445.25 2639.5 449.2 2630.65 455.55 2607.9 471.7
    2611.5 491.2 2610.05 495.35 2605.3 498.9 2602.45 501.05 2595.6 504.75 2588.7 508.4
    2585.8 510.6 2581.05 514.2 2579.5 518.4 2578.2 515.8 2570.7 510.3 2562.1 504 2557.1
    504 2555.9 504 2554.85 504.25 2554.55 504.3 2554.3 504.35\r\nM 2553.9 503.2\r\nQ
    2554.15 502.75 2554.4 502.3 2557.1 497.9 2558.25 495.4 2560.3 490.85 2560.3 486.4
    2560.3 477.35 2553.9 470.05 2550.35 466 2549.5 464.65 2547.5 461.4 2547.5 457.6
    2547.35 436.45 2534.7 423.75 2523.8 412.8 2509.9 412.8 2508.4 412.8 2506.2 413.6
    2504.5 414.2 2501.5 414.35\r\nL 2501.45 414.35\r\nQ 2501.65 422.65 2494.2 430.1\r\nM
    1547.5 361.45\r\nL 1547.55 361.45\r\nQ 1549.05 361.35 1550.5 361.35\r\nL 1550.55
    361.35\r\nQ 1562.5 361.25 1572.6 368.45 1582.8 375.7 1590.15 389.5 1596.35 401.15
    1599.15 414.6 1601.7 426.75 1600.3 433.6 1612.05 430.05 1626.3 441.7 1632 446.4
    1636.4 452.3 1640.6 457.95 1641.9 462.4 1643.65 461.05 1650.65 457.65 1657.35
    454.4 1657.9 454.4 1651.8 429.45 1660.65 411.4 1670.95 390.4 1697.9 390.4 1700.3
    373.7 1712.25 358.95 1722.85 345.9 1738.85 336.7 1753.65 328.2 1768.15 325.7 1782.7
    323.25 1790.7 328 1791.1 324.9 1794.6 320.55 1798.15 316.1 1803.55 312.15 1816.75
    302.4 1829.9 302.4 1854.65 302.4 1865.25 318.15 1869.05 323.75 1869.95 330 1870.75
    335.45 1869.1 337.6 1875.9 337.6 1883.7 343.15 1893.65 350.25 1894.7 361.6\r\nL
    1894.7 364.8\r\nQ 1900.3 359.2 1906.65 356.5 1913.45 353.6 1921.9 353.6 1921.9
    349.85 1913.9 335.25 1905.9 320.65 1905.9 316 1905.9 312.8 1913.3 298.5 1922.15
    281.3 1933.1 267.2 1952.45 242.55 1974.45 233.75 1986 229.1 2000.65 228.85 2012.05
    214.45 2035.35 203.15 2042.9 199.5 2051.4 196.5 2058.2 194.1 2059.2 194.1 2075.65
    194.1 2084.95 203.3 2095.35 213.55 2089.7 230.1 2113.95 226.35 2117 241.35 2117.85
    245.5 2117.35 254.55 2116.85 263.15 2117.7 266.1 2130.2 268.6 2136.15 279.3 2141.7
    289.3 2137.7 298.1 2139.7 296.1 2142.45 292.6 2145.35 290.1 2151.7 290.1 2157.45
    290.1 2162.95 294.1 2168.45 298.1 2169.7 298.1 2169.7 296.1 2171.7 292.1 2173.7
    288.1 2173.7 286.1 2178.7 286.1 2181.7 286.6 2187.1 287.5 2189.7 290.1 2190.35
    271.85 2202.35 261.8 2211.5 254.1 2221.7 254.1 2225.25 254.1 2229.7 258.05 2232.35
    260.35 2237.7 266.1 2255.5 265.75 2264.9 275.25 2273.7 284.15 2273.7 300.1 2273.7
    308.6 2272.7 311.85 2271.25 316.55 2265.7 322.1 2269.1 325.25 2273.9 329 2277.6
    331.85 2278.75 333.25 2281.7 336.7 2281.7 348.1 2281.7 353.65 2277.85 365.55 2272.95
    380.55 2265.7 390.1 2280.3 395.5 2289.35 411.1 2294.45 420 2301.7 438.1 2306.7
    433.1 2307.45 432.6 2311.2 430.1 2317.7 430.1 2322.7 430.1 2326.7 434.1 2330.7
    438.1 2335.7 438.1 2343.75 438.1 2345.3 431.85 2345.9 429.3 2345.2 418.1 2344.6
    408.65 2347.35 404.35 2351.4 398.1 2363.7 398.1 2370.35 398.1 2372.45 400.6 2373.25
    401.55 2375.15 403.5 2374.3 402.55 2374.2 402.35 2373.7 401.1 2373.7 394.1 2373.7
    377.4 2392.15 366.15 2398.1 362.55 2405.15 360 2410.4 358.1 2411.7 358.1 2414.6
    358.1 2419.85 358 2424.15 358.1 2426.7 359.15 2433.2 361.9 2434.2 374.1 2434.2
    370.75 2437.45 368.6 2441.2 366.1 2448.2 366.1 2449.6 366.1 2460.25 371.9 2473.4
    379.05 2483 386.85 2500.8 401.3 2501.45 413.85 2501.45 413.95 2501.45 414.15 2501.45
    414.25 2501.45 414.35 2500.55 414.4 2499.5 414.4\r\nM 2129.7 394.35\r\nL 2132.35
    393.35\r\nQ 2135.6 392.35 2138.7 392.35 2145.45 392.35 2147.15 401.25 2147.7 404.25
    2147.7 416.35 2149.25 415.15 2154.25 412.7 2159.05 410.35 2159.7 410.35 2162.85
    410.35 2164.35 411.45 2165.7 412.45 2165.7 414.35\r\nL 2165.7 416.225\r\nQ 2165.684375
    415.75625 2165.45 415.1 2164.95 413.6 2164.35 411.45\r\nM 2193.7 368.35\r\nQ 2198.2
    358.25 2201.75 356.75 2201.9 356.7 2204.55 356.1 2206.3 355.7 2207.7 354.35\r\nM
    2219.7 592.6\r\nL 2223.35 591.6\r\nQ 2227.6 590.6 2230.7 590.6 2232.55 590.6 2236.8
    598.05 2241.45 606.15 2241.95 612.6 2242.95 611.6 2244.35 609.85 2245.8 608.6
    2248.95 608.6 2252.1 608.6 2254.35 609.6 2255.45 610.1 2255.95 610.6\r\nL 2256.35
    612.55 2256.7 614.35\r\nQ 2257.15 616.6 2255.95 616.6\r\nL 2256.35 612.55\r\nM
    2145.7 748.85\r\nL 2149.35 747.85\r\nQ 2153.6 746.85 2156.7 746.85 2159 746.85
    2162.45 749.6 2167.95 754 2169.7 762.85\r\nL 2171.7 758.85\r\nM 2375.15 403.5\r\nL
    2377.7 406.1\r\nM 2327.95 558.6\r\nL 2337.95 550.6\r\nQ 2340.1 552.25 2342.9 554.4
    2344.6 556.35 2343.95 560.6\r\nL 2344.95 560.35\r\nQ 2345.95 559.85 2345.95 558.6
    2352.35 556.85 2355.5 561.45 2357.15 563.85 2357.95 568.6\r\nL 2359.95 568.6 2359.95
    570.6\r\nM 2269.95 696.85\r\nQ 2276 686.05 2277.85 685.25 2278.8 684.75 2281.35
    684.9 2285.1 685.1 2287.95 684.85 2289.25 686.15 2289.7 690.1 2289.883203125 691.6580078125
    2289.95 694.35\r\nL 2289.95 692.85 2299.95 692.85\r\nQ 2301.95 695.85 2305.95
    702.85 2305.95 698.85 2311.95 698.85 2316.7 698.85 2318.2 699.3 2318.35 699.35
    2318.55 699.4 2317.95 697.05 2317.95 694.85 2317.95 687.25 2322.3 681.8 2324.05
    679.65 2327.95 676.85\r\nL 2327.95 664.85\r\nQ 2335.85 656.95 2340.45 654.2 2346.05
    650.85 2352.95 650.85 2360.6 650.85 2363.5 652.9 2364.75 653.8 2365.95 656.85\r\nM
    2318.55 699.4\r\nQ 2322.1 700.75 2319.95 704.85 2319.95 704.25 2318.95 701 2318.7
    700.2 2318.55 699.4 Z\r\nM 2289.95 694.35\r\nL 2289.95 696.85\r\nM 1547.5 361.9\r\nQ
    1549.120703125 361.6220703125 1550.325 361.6\r\nL 1547.5 361.6\r\nM 1473.9 450.7\r\nQ
    1474.75 450.9 1475.5 451.2\r\nL 1473.9 451.2\r\nQ 1473.9 450.95 1473.9 450.7 Z\r\nM
    150.7 726.85\r\nL 154.35 725.85\r\nQ 158.6 724.85 161.7 724.85 162.65 724.85 166.75
    732.75 170.7 740.35 170.7 740.85 173.7 738.35 176.85 736.75 182.65 733.75 186.95
    734.85\r\nL 188.95 734.85\r\nM 99.85 717.5\r\nQ 100.25 718.15 100.45 718.95 100.6
    719.45 100.65 720.05 100.7 720.4 100.7 720.85\r\nL 100.7 722.75\r\nQ 100.65 721.45
    99.85 717.5 Z\r\nM 308.95 606.6\r\nQ 308.4 603.9 308.05 602.05 308.2 602.35 308.35
    602.65 308.8 603.75 309.35 606 309.7 607.15 310.25 607.9\r\nM 281.95 666.85\r\nQ
    284.5 665.85 285.9 664.6 286.75 663.85 287.95 663.85 291.8 663.85 294.75 669.8
    297.2 674.8 297.05 677.85 298.2 675.25 298.45 675.1 298.8 674.85 301.55 674.85
    304.2 674.85 304.9 675.2 306.3 675.85 308.05 678.85\r\nM 224.95 634.6\r\nL 224.95
    633.1\r\nM 220.95 790.95\r\nQ 219.95 787.95 219.95 785.45 219.95 781.75 225.35
    780.15 226.5 779.8 232.95 778.95\r\nM 413.2 531.55\r\nQ 413.2125 531.1 413.25
    530.65\r\nL 413.2 530.6 413.2 531.55 413.2 532.6\r\nM 413.25 530.65\r\nQ 416 532.35
    413.3 530 413.25 530.3 413.25 530.65 Z\r\nM 379.2 620.7\r\nQ 377.7 617.2 377.45
    616.5 377.2 615.85 377.2 614.2 377.2 606.95 384.2 602.75 389.2 599.7 393.2 599.7
    394.1 599.7 396.3 601.6\r\nL 396.35 601.65\r\nQ 399.05 603.9 397.2 602.7\r\nL
    396.2 602.7 396.3 601.6\r\nM 59.7 810.95\r\nL 61.75 810.45\r\nQ 64.15 809.95 65.7
    809.95 66.85 809.95 68.85 813.15 70.7 816.05 70.7 816.95 71.3 815.9 73.75 814.45
    76.3 812.95 77.7 812.95\"/>\r\n</defs>\r\n\r\n<g transform=\"matrix( 1, 0, 0,
    1, 0.75,0.75) \">\r\n<g transform=\"matrix( 1, 0, 0, 1, 0,0) \">\r\n<use xlink:href=\"#Symbol_2_0_Layer0_0_FILL\"/>\r\n\r\n<use
    xlink:href=\"#Symbol_2_0_Layer0_0_1_STROKES\"/>\r\n</g>\r\n</g>\r\n</svg>\r\n"
  assetBundleName: 
  assetBundleVariant: 
